Tempo(s)	Deformação(mm)	Força(N)
 0.016667 	0.00000 	832.28 
0.51667 	0.00000 	998.74 
1.0167 	0.00000 	1165.2 
1.5167 	0.00000 	1331.7 
2.0167 	0.00000 	1331.7 
2.5167 	0.00000 	1664.6 
2.9833 	0.00000 	2330.4 
3.4833 	0.00010662 	2663.3 
3.9833 	0.00010662 	2663.3 
4.4833 	0.00010662 	2996.2 
4.9833 	0.00010662 	3329.1 
5.4833 	0.00010662 	3662.0 
5.9667 	0.00021324 	4327.9 
6.4667 	0.00053309 	4827.2 
6.7000 	0.00063971 	5493.1 
7.2000 	0.00085294 	5992.4 
7.4833 	0.0010662 	6658.3 
7.8167 	0.0011728 	7324.1 
8.2167 	0.0012794 	7989.9 
8.6333 	0.0015993 	8655.8 
9.1333 	0.0017059 	9155.1 
9.5667 	0.0018125 	9820.9 
10.067 	0.0020257 	10320 
10.550 	0.0021324 	10986 
11.050 	0.0022390 	11486 
11.550 	0.0022390 	11985 
12.050 	0.0023456 	12484 
12.533 	0.0024522 	13150 
13.033 	0.0025588 	13483 
13.533 	0.0025588 	13649 
14.033 	0.0025588 	13649 
14.533 	0.0025588 	13816 
15.033 	0.0025588 	13816 
15.533 	0.0025588 	13816 
16.033 	0.0025588 	13816 
16.533 	0.0025588 	13649 
17.033 	0.0025588 	13816 
17.533 	0.0025588 	13982 
18.033 	0.0025588 	13816 
18.533 	0.0025588 	13816 
19.033 	0.0024522 	13816 
19.533 	0.0025588 	13816 
20.033 	0.0025588 	13816 
20.533 	0.0025588 	13816 
21.033 	0.0025588 	13649 
21.533 	0.0025588 	13816 
22.033 	0.0024522 	13982 
22.533 	0.0025588 	13816 
23.033 	0.0025588 	13816 
23.533 	0.0024522 	13816 
24.033 	0.0024522 	13816 
24.533 	0.0024522 	13816 
25.033 	0.0024522 	13816 
25.533 	0.0024522 	13816 
26.033 	0.0024522 	13816 
26.533 	0.0024522 	13816 
27.033 	0.0024522 	13816 
27.533 	0.0024522 	13816 
28.033 	0.0024522 	13816 
28.533 	0.0024522 	13816 
29.033 	0.0024522 	13816 
29.533 	0.0024522 	13816 
30.033 	0.0024522 	13816 
30.533 	0.0024522 	13982 
31.033 	0.0024522 	13816 
31.533 	0.0024522 	13649 
32.033 	0.0023456 	13816 
32.533 	0.0024522 	13816 
33.033 	0.0023456 	13982 
33.533 	0.0024522 	13816 
34.033 	0.0023456 	13816 
34.533 	0.0024522 	13816 
35.033 	0.0024522 	13982 
35.533 	0.0023456 	13816 
36.033 	0.0023456 	13816 
36.533 	0.0024522 	13816 
37.033 	0.0024522 	13816 
37.533 	0.0024522 	13816 
38.033 	0.0024522 	13816 
38.533 	0.0023456 	13816 
39.033 	0.0023456 	13982 
39.533 	0.0024522 	13816 
40.033 	0.0024522 	13816 
40.533 	0.0024522 	13649 
41.033 	0.0024522 	13816 
41.533 	0.0024522 	13982 
42.033 	0.0024522 	13982 
42.533 	0.0024522 	13816 
43.033 	0.0024522 	13816 
43.533 	0.0024522 	13816 
44.033 	0.0023456 	13816 
44.533 	0.0023456 	13982 
45.033 	0.0024522 	13816 
45.533 	0.0023456 	13816 
46.033 	0.0023456 	13816 
46.533 	0.0023456 	13816 
47.033 	0.0024522 	13816 
47.533 	0.0024522 	13649 
48.033 	0.0023456 	13816 
48.533 	0.0023456 	13816 
49.033 	0.0023456 	13816 
49.533 	0.0023456 	13816 
50.033 	0.0023456 	13816 
50.533 	0.0024522 	13816 
51.033 	0.0024522 	13649 
51.533 	0.0023456 	13816 
52.033 	0.0023456 	13816 
52.533 	0.0024522 	13816 
53.033 	0.0024522 	13816 
53.533 	0.0024522 	13816 
54.033 	0.0023456 	13816 
54.533 	0.0023456 	13649 
55.033 	0.0023456 	13816 
55.533 	0.0023456 	13982 
56.033 	0.0024522 	13982 
56.533 	0.0023456 	13816 
57.033 	0.0023456 	13816 
57.533 	0.0023456 	13816 
58.033 	0.0023456 	13816 
58.533 	0.0023456 	13816 
59.033 	0.0023456 	13816 
59.533 	0.0023456 	13649 
60.033 	0.0023456 	13816 
60.533 	0.0023456 	13816 
61.033 	0.0023456 	13982 
61.533 	0.0023456 	13816 
62.033 	0.0023456 	13816 
62.533 	0.0023456 	13816 
63.033 	0.0023456 	13816 
63.533 	0.0023456 	13816 
64.033 	0.0023456 	13816 
64.533 	0.0023456 	13816 
65.033 	0.0023456 	13816 
65.533 	0.0023456 	13816 
66.033 	0.0023456 	13816 
66.533 	0.0023456 	13982 
67.033 	0.0023456 	13816 
67.533 	0.0023456 	13816 
68.033 	0.0023456 	13649 
68.533 	0.0023456 	13649 
69.033 	0.0022390 	13816 
69.533 	0.0023456 	13816 
70.033 	0.0023456 	13649 
70.533 	0.0023456 	13816 
71.033 	0.0023456 	13816 
71.533 	0.0023456 	13816 
72.033 	0.0023456 	13816 
72.533 	0.0023456 	13816 
73.033 	0.0022390 	13816 
73.533 	0.0022390 	13317 
74.033 	0.0022390 	12817 
74.533 	0.0022390 	12484 
75.033 	0.0021324 	11985 
75.533 	0.0020257 	11486 
76.033 	0.0019191 	10986 
76.533 	0.0019191 	10653 
76.983 	0.0019191 	9987.4 
77.483 	0.0017059 	9488.0 
77.983 	0.0015993 	9155.1 
78.417 	0.0015993 	8489.3 
78.917 	0.0014927 	8156.4 
79.383 	0.0013860 	7490.6 
79.883 	0.0013860 	7324.1 
80.333 	0.0012794 	6658.3 
80.833 	0.0012794 	6158.9 
81.333 	0.0011728 	5992.4 
81.683 	0.0010662 	5326.6 
82.183 	0.0010662 	5160.2 
82.517 	0.00095956 	4494.3 
83.017 	0.00095956 	4327.9 
83.433 	0.00085294 	3662.0 
83.933 	0.00085294 	3495.6 
84.433 	0.00074633 	2996.2 
84.933 	0.00063971 	2829.8 
85.433 	0.00053309 	2496.9 
85.933 	0.00042647 	2330.4 
86.433 	0.00031985 	1997.5 
86.933 	0.00031985 	2163.9 
87.433 	0.00021324 	1831.0 
87.933 	0.00021324 	1997.5 
88.433 	0.00010662 	1997.5 
88.933 	0.00000 	1831.0 
89.433 	0.00000 	1831.0 
89.933 	0.00000 	1664.6 
90.433 	-0.0001068 	1831.0 
90.933 	-0.0002136 	1831.0 
91.433 	-0.0002136 	1664.6 
91.933 	-0.0003204 	1498.1 
92.433 	-0.0004273 	1498.1 
92.933 	-0.0004273 	1498.1 
93.433 	-0.0004273 	1498.1 
93.933 	-0.0004273 	1498.1 
94.433 	-0.0005341 	1331.7 
94.933 	-0.0005341 	1331.7 
95.433 	-0.0005341 	1165.2 
95.933 	-0.0005341 	1331.7 
96.433 	-0.0006409 	1165.2 
96.933 	-0.0006409 	1165.2 
97.433 	-0.0006409 	1165.2 
97.933 	-0.0006409 	998.74 
98.433 	-0.0006409 	998.74 
98.933 	-0.0006409 	1165.2 
99.433 	-0.0006409 	998.74 
99.933 	-0.0006409 	998.74 
100.43 	-0.0006409 	998.74 
100.93 	-0.0006409 	998.74 
101.43 	-0.0006409 	998.74 
101.93 	-0.0006409 	998.74 
102.43 	-0.0007478 	998.74 
102.93 	-0.0007478 	998.74 
103.43 	-0.0006409 	1165.2 
103.93 	-0.0007478 	998.74 
104.43 	-0.0007478 	1165.2 
104.93 	-0.0007478 	998.74 
105.43 	-0.0007478 	998.74 
105.93 	-0.0007478 	998.74 
106.43 	-0.0007478 	998.74 
106.93 	-0.0007478 	998.74 
107.43 	-0.0007478 	1165.2 
107.93 	-0.0007478 	998.74 
108.43 	-0.0007478 	998.74 
108.93 	-0.0007478 	998.74 
109.43 	-0.0007478 	998.74 
109.93 	-0.0007478 	998.74 
110.43 	-0.0007478 	998.74 
110.93 	-0.0007478 	998.74 
111.43 	-0.0007478 	998.74 
111.93 	-0.0007478 	998.74 
112.43 	-0.0007478 	998.74 
112.93 	-0.0007478 	998.74 
113.43 	-0.0007478 	998.74 
113.93 	-0.0007478 	832.28 
114.43 	-0.0007478 	998.74 
114.93 	-0.0007478 	998.74 
115.43 	-0.0007478 	998.74 
115.93 	-0.0007478 	998.74 
116.43 	-0.0007478 	1165.2 
116.93 	-0.0007478 	998.74 
117.43 	-0.0007478 	998.74 
117.93 	-0.0007478 	998.74 
118.43 	-0.0007478 	998.74 
118.93 	-0.0007478 	998.74 
119.43 	-0.0007478 	998.74 
119.93 	-0.0007478 	998.74 
120.43 	-0.0007478 	998.74 
120.93 	-0.0007478 	998.74 
121.43 	-0.0007478 	998.74 
121.93 	-0.0007478 	998.74 
122.43 	-0.0007478 	998.74 
122.93 	-0.0007478 	998.74 
123.43 	-0.0007478 	998.74 
123.93 	-0.0007478 	832.28 
124.43 	-0.0007478 	998.74 
124.93 	-0.0007478 	998.74 
125.43 	-0.0007478 	998.74 
125.93 	-0.0007478 	998.74 
126.43 	-0.0007478 	998.74 
126.93 	-0.0007478 	998.74 
127.43 	-0.0007478 	1165.2 
127.93 	-0.0007478 	998.74 
128.43 	-0.0007478 	1165.2 
128.93 	-0.0007478 	998.74 
129.43 	-0.0007478 	998.74 
129.93 	-0.0007478 	998.74 
130.43 	-0.0007478 	998.74 
130.93 	-0.0007478 	998.74 
131.43 	-0.0007478 	998.74 
131.93 	-0.0007478 	998.74 
132.43 	-0.0007478 	998.74 
132.93 	-0.0007478 	998.74 
133.43 	-0.0007478 	998.74 
133.93 	-0.0008546 	998.74 
134.43 	-0.0007478 	998.74 
134.93 	-0.0007478 	998.74 
135.43 	-0.0007478 	1165.2 
135.93 	-0.0007478 	998.74 
136.43 	-0.0007478 	998.74 
136.93 	-0.0007478 	1165.2 
137.43 	-0.0007478 	998.74 
137.93 	-0.0007478 	998.74 
138.43 	-0.0007478 	998.74 
138.93 	-0.0007478 	998.74 
139.43 	-0.0007478 	998.74 
139.93 	-0.0007478 	998.74 
140.43 	-0.0008546 	832.28 
140.93 	-0.0007478 	998.74 
141.43 	-0.0007478 	998.74 
141.93 	-0.0007478 	998.74 
142.43 	-0.0007478 	998.74 
142.93 	-0.0007478 	1165.2 
143.43 	-0.0007478 	998.74 
143.93 	-0.0007478 	998.74 
144.43 	-0.0007478 	998.74 
144.93 	-0.0007478 	998.74 
145.43 	-0.0008546 	998.74 
145.93 	-0.0007478 	998.74 
146.43 	-0.0007478 	998.74 
146.93 	-0.0007478 	998.74 
147.43 	-0.0007478 	998.74 
147.93 	-0.0007478 	998.74 
148.43 	-0.0007478 	1165.2 
148.93 	-0.0007478 	1331.7 
149.43 	-0.0007478 	1331.7 
149.93 	-0.0006409 	1831.0 
150.43 	-0.0006409 	2163.9 
150.93 	-0.0006409 	2663.3 
151.43 	-0.0006409 	2829.8 
151.93 	-0.0006409 	2996.2 
152.43 	-0.0005341 	3495.6 
152.93 	-0.0004273 	3662.0 
153.43 	-0.0003204 	3995.0 
153.83 	0.00000 	4660.8 
154.23 	0.00021324 	5326.6 
154.73 	0.00042647 	5992.4 
155.05 	0.00053309 	6658.3 
155.40 	0.00074633 	7324.1 
155.87 	0.0010662 	7989.9 
156.25 	0.0012794 	8655.8 
156.75 	0.0013860 	9155.1 
157.17 	0.0012794 	9820.9 
157.67 	0.0012794 	10320 
158.17 	0.0013860 	10820 
158.62 	0.0013860 	11486 
159.12 	0.0014927 	11818 
159.50 	0.0014927 	12484 
160.00 	0.0015993 	12817 
160.50 	0.0015993 	13317 
161.00 	0.0015993 	13483 
161.50 	0.0015993 	13649 
162.00 	0.0015993 	13816 
162.50 	0.0015993 	13816 
163.00 	0.0015993 	13816 
163.50 	0.0015993 	13982 
164.00 	0.0015993 	13816 
164.50 	0.0015993 	13649 
165.00 	0.0015993 	13649 
165.50 	0.0015993 	13816 
166.00 	0.0015993 	13816 
166.50 	0.0015993 	13816 
167.00 	0.0015993 	13649 
167.50 	0.0014927 	13649 
168.00 	0.0015993 	13816 
168.50 	0.0014927 	13982 
169.00 	0.0014927 	13816 
169.50 	0.0014927 	13649 
170.00 	0.0014927 	13816 
170.50 	0.0014927 	13982 
171.00 	0.0014927 	13816 
171.50 	0.0014927 	13816 
172.00 	0.0014927 	13816 
172.50 	0.0014927 	13816 
173.00 	0.0013860 	13816 
173.50 	0.0014927 	13816 
174.00 	0.0014927 	13816 
174.50 	0.0013860 	13816 
175.00 	0.0013860 	13816 
175.50 	0.0013860 	13816 
176.00 	0.0014927 	13816 
176.50 	0.0013860 	13816 
177.00 	0.0013860 	13816 
177.50 	0.0014927 	13816 
178.00 	0.0013860 	13816 
178.50 	0.0013860 	13816 
179.00 	0.0013860 	13816 
179.50 	0.0013860 	13816 
180.00 	0.0014927 	13816 
180.50 	0.0014927 	13816 
181.00 	0.0013860 	13649 
181.50 	0.0014927 	13816 
182.00 	0.0014927 	13816 
182.50 	0.0014927 	13816 
183.00 	0.0013860 	13816 
183.50 	0.0013860 	13816 
184.00 	0.0014927 	13816 
184.50 	0.0013860 	13816 
185.00 	0.0013860 	13816 
185.50 	0.0014927 	13816 
186.00 	0.0014927 	13816 
186.50 	0.0014927 	13816 
187.00 	0.0013860 	13816 
187.50 	0.0014927 	13816 
188.00 	0.0014927 	13982 
188.50 	0.0014927 	13649 
189.00 	0.0013860 	13649 
189.50 	0.0014927 	13816 
190.00 	0.0013860 	13982 
190.50 	0.0014927 	13816 
191.00 	0.0014927 	13816 
191.50 	0.0013860 	13816 
192.00 	0.0013860 	13816 
192.50 	0.0014927 	13816 
193.00 	0.0013860 	13816 
193.50 	0.0013860 	13816 
194.00 	0.0014927 	13649 
194.50 	0.0013860 	13816 
195.00 	0.0013860 	13982 
195.50 	0.0014927 	13982 
196.00 	0.0013860 	13649 
196.50 	0.0013860 	13816 
197.00 	0.0013860 	13816 
197.50 	0.0013860 	13816 
198.00 	0.0013860 	13816 
198.50 	0.0013860 	13649 
199.00 	0.0013860 	13816 
199.50 	0.0013860 	13816 
200.00 	0.0013860 	13816 
200.50 	0.0013860 	13816 
201.00 	0.0013860 	13816 
201.50 	0.0013860 	13816 
202.00 	0.0013860 	13816 
202.50 	0.0013860 	13816 
203.00 	0.0013860 	13649 
203.50 	0.0013860 	13816 
204.00 	0.0013860 	13816 
204.50 	0.0013860 	13816 
205.00 	0.0013860 	13816 
205.50 	0.0013860 	13816 
206.00 	0.0013860 	13649 
206.50 	0.0013860 	13816 
207.00 	0.0013860 	13982 
207.50 	0.0013860 	13816 
208.00 	0.0013860 	13816 
208.50 	0.0013860 	13816 
209.00 	0.0013860 	13816 
209.50 	0.0013860 	13982 
210.00 	0.0013860 	13816 
210.50 	0.0013860 	13649 
211.00 	0.0012794 	13816 
211.50 	0.0013860 	13982 
212.00 	0.0013860 	13982 
212.50 	0.0013860 	13816 
213.00 	0.0013860 	13816 
213.50 	0.0013860 	13816 
214.00 	0.0013860 	13982 
214.50 	0.0013860 	13982 
215.00 	0.0012794 	13816 
215.50 	0.0013860 	13649 
216.00 	0.0013860 	13816 
216.50 	0.0013860 	13816 
217.00 	0.0013860 	13816 
217.50 	0.0013860 	13982 
218.00 	0.0012794 	13649 
218.50 	0.0012794 	13816 
219.00 	0.0013860 	13982 
219.50 	0.0013860 	13982 
220.00 	0.0012794 	13982 
220.50 	0.0013860 	13649 
221.00 	0.0012794 	13483 
221.50 	0.0012794 	12984 
222.00 	0.0012794 	12651 
222.50 	0.0011728 	12151 
223.00 	0.0010662 	11652 
223.50 	0.00095956 	11319 
223.88 	0.00095956 	10653 
224.38 	0.00095956 	10154 
224.88 	0.00074633 	9820.9 
225.32 	0.00074633 	9155.1 
225.82 	0.00063971 	8822.2 
226.28 	0.00053309 	8156.4 
226.78 	0.00042647 	7823.5 
227.28 	0.00042647 	7490.6 
227.75 	0.00031985 	6824.7 
228.25 	0.00031985 	6325.4 
228.75 	0.00021324 	5826.0 
229.25 	0.00010662 	5659.5 
229.68 	0.00010662 	4993.7 
230.18 	-0.0001068 	4827.2 
230.48 	0.00000 	4161.4 
230.98 	-0.0001068 	3662.0 
231.48 	-0.0002136 	3495.6 
231.98 	-0.0002136 	3329.1 
232.42 	-0.0003204 	2663.3 
232.92 	-0.0004273 	2496.9 
233.42 	-0.0005341 	2330.4 
233.92 	-0.0006409 	1997.5 
234.42 	-0.0006409 	1997.5 
234.92 	-0.0006409 	1997.5 
235.42 	-0.0007478 	1997.5 
235.92 	-0.0007478 	1831.0 
236.42 	-0.0008546 	1831.0 
236.92 	-0.0009614 	1831.0 
237.42 	-0.0008546 	1664.6 
237.92 	-0.0008546 	1831.0 
238.42 	-0.0009614 	1664.6 
238.92 	-0.0009614 	1498.1 
239.42 	-0.0010683 	1664.6 
239.92 	-0.0010683 	1498.1 
240.42 	-0.0010683 	1498.1 
240.92 	-0.0010683 	1498.1 
241.42 	-0.0010683 	1331.7 
241.92 	-0.0010683 	1331.7 
242.42 	-0.0011751 	1331.7 
242.92 	-0.0011751 	1331.7 
243.42 	-0.0011751 	1331.7 
243.92 	-0.0011751 	1331.7 
244.42 	-0.0010683 	1165.2 
244.92 	-0.0011751 	1165.2 
245.42 	-0.0011751 	998.74 
245.92 	-0.0011751 	1165.2 
246.42 	-0.0011751 	1165.2 
246.92 	-0.0011751 	998.74 
247.42 	-0.0011751 	998.74 
247.92 	-0.0011751 	998.74 
248.42 	-0.0011751 	998.74 
248.92 	-0.0011751 	998.74 
249.42 	-0.0011751 	998.74 
249.92 	-0.0011751 	998.74 
250.42 	-0.0011751 	832.28 
250.92 	-0.0011751 	998.74 
251.42 	-0.0011751 	998.74 
251.92 	-0.0011751 	998.74 
252.42 	-0.0011751 	998.74 
252.92 	-0.0011751 	998.74 
253.42 	-0.0011751 	1165.2 
253.92 	-0.0011751 	998.74 
254.42 	-0.0011751 	998.74 
254.92 	-0.0011751 	1165.2 
255.42 	-0.0011751 	998.74 
255.92 	-0.0011751 	998.74 
256.42 	-0.0012820 	998.74 
256.92 	-0.0011751 	998.74 
257.42 	-0.0012820 	998.74 
257.92 	-0.0011751 	998.74 
258.42 	-0.0012820 	998.74 
258.92 	-0.0011751 	998.74 
259.42 	-0.0011751 	998.74 
259.92 	-0.0012820 	832.28 
260.42 	-0.0011751 	998.74 
260.92 	-0.0012820 	998.74 
261.42 	-0.0012820 	998.74 
261.92 	-0.0012820 	998.74 
262.42 	-0.0011751 	998.74 
262.92 	-0.0012820 	832.28 
263.42 	-0.0011751 	998.74 
263.92 	-0.0012820 	998.74 
264.42 	-0.0012820 	998.74 
264.92 	-0.0011751 	998.74 
265.42 	-0.0011751 	998.74 
265.92 	-0.0012820 	998.74 
266.42 	-0.0011751 	998.74 
266.92 	-0.0012820 	998.74 
267.42 	-0.0011751 	998.74 
267.92 	-0.0011751 	998.74 
268.42 	-0.0011751 	998.74 
268.92 	-0.0012820 	998.74 
269.42 	-0.0011751 	998.74 
269.92 	-0.0011751 	998.74 
270.42 	-0.0011751 	998.74 
270.92 	-0.0011751 	998.74 
271.42 	-0.0011751 	998.74 
271.92 	-0.0012820 	998.74 
272.42 	-0.0012820 	998.74 
272.92 	-0.0012820 	998.74 
273.42 	-0.0012820 	998.74 
273.92 	-0.0011751 	998.74 
274.42 	-0.0011751 	998.74 
274.92 	-0.0012820 	832.28 
275.42 	-0.0011751 	998.74 
275.92 	-0.0012820 	998.74 
276.42 	-0.0011751 	998.74 
276.92 	-0.0012820 	998.74 
277.42 	-0.0012820 	998.74 
277.92 	-0.0012820 	998.74 
278.42 	-0.0012820 	998.74 
278.92 	-0.0012820 	998.74 
279.42 	-0.0012820 	832.28 
279.92 	-0.0011751 	998.74 
280.42 	-0.0012820 	998.74 
280.92 	-0.0012820 	998.74 
281.42 	-0.0012820 	998.74 
281.92 	-0.0011751 	998.74 
282.42 	-0.0011751 	998.74 
282.92 	-0.0012820 	998.74 
283.42 	-0.0012820 	1165.2 
283.92 	-0.0012820 	998.74 
284.42 	-0.0011751 	998.74 
284.92 	-0.0012820 	998.74 
285.42 	-0.0012820 	1165.2 
285.92 	-0.0011751 	998.74 
286.42 	-0.0012820 	998.74 
286.92 	-0.0011751 	998.74 
287.42 	-0.0012820 	998.74 
287.92 	-0.0011751 	998.74 
288.42 	-0.0011751 	998.74 
288.92 	-0.0011751 	832.28 
289.42 	-0.0012820 	998.74 
289.92 	-0.0012820 	998.74 
290.42 	-0.0011751 	832.28 
290.92 	-0.0012820 	998.74 
291.42 	-0.0011751 	1165.2 
291.92 	-0.0012820 	1165.2 
292.42 	-0.0012820 	1165.2 
292.92 	-0.0012820 	832.28 
293.42 	-0.0011751 	998.74 
293.92 	-0.0011751 	998.74 
294.42 	-0.0012820 	998.74 
294.92 	-0.0012820 	998.74 
295.42 	-0.0011751 	832.28 
295.92 	-0.0012820 	998.74 
296.42 	-0.0012820 	1331.7 
296.92 	-0.0012820 	1331.7 
297.42 	-0.0011751 	1664.6 
297.92 	-0.0011751 	2163.9 
298.42 	-0.0010683 	2330.4 
298.82 	-0.0010683 	2996.2 
299.32 	-0.0010683 	2663.3 
299.80 	-0.0010683 	3329.1 
300.30 	-0.0009614 	3495.6 
300.80 	-0.0008546 	3828.5 
301.27 	-0.0006409 	4494.3 
301.77 	-0.0005341 	5160.2 
302.07 	-0.0004273 	5826.0 
302.55 	-0.0002136 	6491.8 
303.03 	-0.0001068 	7157.6 
303.40 	0.00000 	7823.5 
303.80 	0.00010662 	8489.3 
304.23 	0.00021324 	9155.1 
304.73 	0.00031985 	9654.5 
305.17 	0.00053309 	10320 
305.67 	0.00053309 	10653 
306.08 	0.00063971 	11319 
306.58 	0.00074633 	11652 
307.03 	0.00085294 	12318 
307.53 	0.00095956 	12817 
308.03 	0.00095956 	13317 
308.53 	0.0010662 	13649 
309.03 	0.00095956 	13649 
309.53 	0.0010662 	13649 
310.03 	0.0010662 	13816 
310.53 	0.0010662 	13816 
311.03 	0.0010662 	13816 
311.53 	0.0010662 	13816 
312.03 	0.0010662 	13649 
312.53 	0.0010662 	13816 
313.03 	0.0010662 	13816 
313.53 	0.0010662 	13816 
314.03 	0.0010662 	13816 
314.53 	0.0010662 	13816 
315.03 	0.0010662 	13816 
315.53 	0.0010662 	13816 
316.03 	0.0010662 	13816 
316.53 	0.0010662 	13816 
317.03 	0.0010662 	13816 
317.53 	0.0010662 	13816 
318.03 	0.0010662 	13816 
318.53 	0.0010662 	13816 
319.03 	0.0010662 	13816 
319.53 	0.0010662 	13816 
320.03 	0.0010662 	13816 
320.53 	0.00095956 	13816 
321.03 	0.0010662 	13816 
321.53 	0.0010662 	13816 
322.03 	0.0010662 	13649 
322.53 	0.0010662 	13816 
323.03 	0.0010662 	13816 
323.53 	0.0010662 	13982 
324.03 	0.0010662 	13816 
324.53 	0.0010662 	13816 
325.03 	0.0010662 	13816 
325.53 	0.0010662 	13982 
326.03 	0.0010662 	13816 
326.53 	0.0010662 	13816 
327.03 	0.0010662 	13982 
327.53 	0.0010662 	13816 
328.03 	0.0010662 	13816 
328.53 	0.00095956 	13816 
329.03 	0.0010662 	13816 
329.53 	0.0010662 	13982 
330.03 	0.0010662 	13816 
330.53 	0.0010662 	13816 
331.03 	0.0010662 	13816 
331.53 	0.0010662 	13816 
332.03 	0.0010662 	13816 
332.53 	0.0010662 	13816 
333.03 	0.00095956 	13816 
333.53 	0.0010662 	13816 
334.03 	0.00095956 	13982 
334.53 	0.0010662 	13982 
335.03 	0.0010662 	13816 
335.53 	0.0010662 	13816 
336.03 	0.0010662 	13649 
336.53 	0.00095956 	13982 
337.03 	0.0010662 	13982 
337.53 	0.0010662 	13816 
338.03 	0.0010662 	13649 
338.53 	0.0010662 	13649 
339.03 	0.0010662 	13816 
339.53 	0.0010662 	13816 
340.03 	0.0010662 	13816 
340.53 	0.0010662 	13649 
341.03 	0.0010662 	13816 
341.53 	0.00095956 	13816 
342.03 	0.0010662 	13816 
342.53 	0.0010662 	13816 
343.03 	0.0010662 	13649 
343.53 	0.00095956 	13649 
344.03 	0.0010662 	13816 
344.53 	0.0010662 	13816 
345.03 	0.0010662 	13816 
345.53 	0.0010662 	13649 
346.03 	0.00095956 	13816 
346.53 	0.0010662 	13816 
347.03 	0.0010662 	13816 
347.53 	0.0010662 	13816 
348.03 	0.00095956 	13816 
348.53 	0.0010662 	13816 
349.03 	0.00095956 	13982 
349.53 	0.0010662 	13816 
350.03 	0.00095956 	13816 
350.53 	0.0010662 	13649 
351.03 	0.0010662 	13816 
351.53 	0.0010662 	13816 
352.03 	0.00095956 	13816 
352.53 	0.0010662 	13816 
353.03 	0.00095956 	13816 
353.53 	0.0010662 	13816 
354.03 	0.0010662 	13816 
354.53 	0.00095956 	13982 
355.03 	0.00095956 	13816 
355.53 	0.00095956 	13649 
356.03 	0.00095956 	13816 
356.53 	0.00095956 	13816 
357.03 	0.00095956 	13816 
357.53 	0.0010662 	13816 
358.03 	0.00095956 	13649 
358.53 	0.0010662 	13649 
359.03 	0.0010662 	13816 
359.53 	0.0010662 	13982 
360.03 	0.0010662 	13816 
360.53 	0.00095956 	13816 
361.03 	0.00095956 	13816 
361.53 	0.00095956 	13816 
362.03 	0.0010662 	13816 
362.53 	0.0010662 	13816 
363.03 	0.0010662 	13816 
363.53 	0.00095956 	13649 
364.03 	0.0010662 	13816 
364.53 	0.00095956 	13982 
365.03 	0.0010662 	13982 
365.53 	0.00095956 	13816 
366.03 	0.0010662 	13649 
366.53 	0.00095956 	13816 
367.03 	0.0010662 	13982 
367.53 	0.0010662 	13816 
368.03 	0.00095956 	13816 
368.53 	0.0010662 	13649 
369.02 	0.00095956 	12984 
369.52 	0.00095956 	12651 
370.02 	0.00085294 	12318 
370.52 	0.00074633 	11818 
371.00 	0.00063971 	11153 
371.50 	0.00063971 	10820 
372.00 	0.00053309 	10320 
372.50 	0.00042647 	9820.9 
372.97 	0.00042647 	9155.1 
373.47 	0.00031985 	8822.2 
373.95 	0.00021324 	8156.4 
374.45 	0.00021324 	7823.5 
374.95 	0.00010662 	7324.1 
375.45 	0.00000 	6824.7 
375.95 	0.00000 	6491.8 
376.37 	-0.0001068 	5826.0 
376.87 	-0.0002136 	5659.5 
377.27 	-0.0003204 	4993.7 
377.77 	-0.0003204 	4827.2 
378.15 	-0.0003204 	4161.4 
378.65 	-0.0004273 	3828.5 
379.15 	-0.0005341 	3495.6 
379.65 	-0.0006409 	2996.2 
380.15 	-0.0006409 	2663.3 
380.65 	-0.0008546 	2496.9 
381.15 	-0.0008546 	2163.9 
381.65 	-0.0009614 	1997.5 
382.15 	-0.0009614 	2163.9 
382.65 	-0.0010683 	1831.0 
383.15 	-0.0010683 	1997.5 
383.65 	-0.0010683 	1831.0 
384.15 	-0.0011751 	1831.0 
384.65 	-0.0011751 	1664.6 
385.15 	-0.0011751 	1831.0 
385.65 	-0.0011751 	1664.6 
386.15 	-0.0012820 	1664.6 
386.65 	-0.0011751 	1664.6 
387.15 	-0.0012820 	1498.1 
387.65 	-0.0012820 	1498.1 
388.15 	-0.0012820 	1498.1 
388.65 	-0.0012820 	1498.1 
389.15 	-0.0012820 	1498.1 
389.65 	-0.0012820 	1498.1 
390.15 	-0.0013888 	1331.7 
390.65 	-0.0013888 	1331.7 
391.15 	-0.0013888 	1331.7 
391.65 	-0.0013888 	1165.2 
392.15 	-0.0013888 	1165.2 
392.65 	-0.0013888 	998.74 
393.15 	-0.0013888 	998.74 
393.65 	-0.0013888 	1165.2 
394.15 	-0.0013888 	1165.2 
394.65 	-0.0013888 	998.74 
395.15 	-0.0013888 	998.74 
395.65 	-0.0013888 	998.74 
396.15 	-0.0013888 	998.74 
396.65 	-0.0013888 	998.74 
397.15 	-0.0013888 	998.74 
397.65 	-0.0013888 	998.74 
398.15 	-0.0013888 	998.74 
398.65 	-0.0013888 	998.74 
399.15 	-0.0013888 	998.74 
399.65 	-0.0013888 	998.74 
400.15 	-0.0013888 	998.74 
400.65 	-0.0013888 	998.74 
401.15 	-0.0013888 	998.74 
401.65 	-0.0013888 	1165.2 
402.15 	-0.0013888 	998.74 
402.65 	-0.0013888 	998.74 
403.15 	-0.0013888 	1165.2 
403.65 	-0.0013888 	998.74 
404.15 	-0.0013888 	998.74 
404.65 	-0.0013888 	1165.2 
405.15 	-0.0013888 	832.28 
405.65 	-0.0013888 	998.74 
406.15 	-0.0013888 	998.74 
406.65 	-0.0013888 	998.74 
407.15 	-0.0013888 	998.74 
407.65 	-0.0013888 	998.74 
408.15 	-0.0013888 	998.74 
408.65 	-0.0013888 	1165.2 
409.15 	-0.0013888 	998.74 
409.65 	-0.0013888 	998.74 
410.15 	-0.0013888 	998.74 
410.65 	-0.0013888 	998.74 
411.15 	-0.0013888 	832.28 
411.65 	-0.0013888 	1165.2 
412.15 	-0.0013888 	832.28 
412.65 	-0.0013888 	998.74 
413.15 	-0.0013888 	1165.2 
413.65 	-0.0013888 	998.74 
414.15 	-0.0013888 	998.74 
414.65 	-0.0013888 	998.74 
415.15 	-0.0013888 	1165.2 
415.65 	-0.0013888 	1165.2 
416.15 	-0.0013888 	998.74 
416.65 	-0.0014956 	998.74 
417.15 	-0.0013888 	998.74 
417.65 	-0.0013888 	998.74 
418.15 	-0.0013888 	998.74 
418.65 	-0.0013888 	998.74 
419.15 	-0.0013888 	998.74 
419.65 	-0.0013888 	998.74 
420.15 	-0.0013888 	998.74 
420.65 	-0.0013888 	998.74 
421.15 	-0.0013888 	1165.2 
421.65 	-0.0013888 	998.74 
422.15 	-0.0013888 	998.74 
422.65 	-0.0013888 	998.74 
423.15 	-0.0013888 	998.74 
423.65 	-0.0013888 	998.74 
424.15 	-0.0013888 	998.74 
424.65 	-0.0013888 	998.74 
425.15 	-0.0013888 	998.74 
425.65 	-0.0013888 	998.74 
426.15 	-0.0013888 	998.74 
426.65 	-0.0013888 	998.74 
427.15 	-0.0013888 	998.74 
427.65 	-0.0013888 	998.74 
428.15 	-0.0013888 	998.74 
428.65 	-0.0013888 	1165.2 
429.15 	-0.0013888 	998.74 
429.65 	-0.0014956 	998.74 
430.15 	-0.0013888 	998.74 
430.65 	-0.0013888 	998.74 
431.15 	-0.0013888 	998.74 
431.65 	-0.0013888 	832.28 
432.15 	-0.0013888 	998.74 
432.65 	-0.0013888 	998.74 
433.15 	-0.0013888 	998.74 
433.65 	-0.0013888 	998.74 
434.15 	-0.0014956 	1165.2 
434.65 	-0.0013888 	998.74 
435.15 	-0.0013888 	998.74 
435.65 	-0.0013888 	998.74 
436.15 	-0.0014956 	998.74 
436.65 	-0.0014956 	998.74 
437.15 	-0.0013888 	832.28 
437.65 	-0.0013888 	998.74 
438.15 	-0.0013888 	998.74 
438.65 	-0.0013888 	998.74 
439.15 	-0.0013888 	998.74 
439.65 	-0.0013888 	998.74 
440.15 	-0.0013888 	998.74 
440.65 	-0.0013888 	1165.2 
441.15 	-0.0013888 	998.74 
441.65 	-0.0013888 	998.74 
442.15 	-0.0014956 	998.74 
442.65 	-0.0013888 	998.74 
443.02 	-0.0013888 	998.74 
443.52 	-0.0013888 	998.74 
444.02 	-0.0013888 	998.74 
444.52 	-0.0013888 	998.74 
445.02 	-0.0013888 	998.74 
445.52 	-0.0013888 	998.74 
446.02 	-0.0013888 	998.74 
446.52 	-0.0013888 	998.74 
447.02 	-0.0013888 	998.74 
447.52 	-0.0013888 	998.74 
448.02 	-0.0013888 	998.74 
448.52 	-0.0013888 	998.74 
449.02 	-0.0013888 	998.74 
449.52 	-0.0014956 	832.28 
450.02 	-0.0013888 	998.74 
450.52 	-0.0013888 	998.74 
451.02 	-0.0013888 	998.74 
451.52 	-0.0013888 	998.74 
452.02 	-0.0013888 	832.28 
452.52 	-0.0013888 	1165.2 
453.02 	-0.0013888 	998.74 
453.52 	-0.0013888 	998.74 
454.02 	-0.0013888 	998.74 
454.52 	-0.0014956 	998.74 
455.02 	-0.0014956 	998.74 
455.52 	-0.0013888 	1165.2 
456.02 	-0.0013888 	998.74 
456.52 	-0.0013888 	998.74 
457.02 	-0.0013888 	998.74 
457.52 	-0.0014956 	998.74 
458.02 	-0.0013888 	1165.2 
458.52 	-0.0013888 	998.74 
459.02 	-0.0013888 	1165.2 
459.52 	-0.0013888 	998.74 
460.02 	-0.0013888 	998.74 
460.52 	-0.0013888 	998.74 
461.02 	-0.0013888 	998.74 
461.52 	-0.0013888 	998.74 
462.02 	-0.0013888 	998.74 
462.52 	-0.0013888 	998.74 
463.02 	-0.0013888 	1165.2 
463.52 	-0.0013888 	1165.2 
464.02 	-0.0013888 	998.74 
464.52 	-0.0013888 	998.74 
465.02 	-0.0013888 	998.74 
465.52 	-0.0013888 	998.74 
466.02 	-0.0013888 	998.74 
466.52 	-0.0013888 	998.74 
467.02 	-0.0013888 	998.74 
467.52 	-0.0013888 	998.74 
468.02 	-0.0013888 	998.74 
468.52 	-0.0013888 	998.74 
469.02 	-0.0013888 	998.74 
469.52 	-0.0014956 	998.74 
470.02 	-0.0014956 	998.74 
470.52 	-0.0013888 	998.74 
471.02 	-0.0013888 	998.74 
471.52 	-0.0013888 	832.28 
472.02 	-0.0013888 	998.74 
472.52 	-0.0013888 	998.74 
473.00 	-0.0013888 	998.74 
473.50 	-0.0013888 	998.74 
474.00 	-0.0013888 	998.74 
474.50 	-0.0014956 	998.74 
475.00 	-0.0013888 	1331.7 
475.50 	-0.0013888 	1331.7 
476.00 	-0.0013888 	1664.6 
476.50 	-0.0012820 	2163.9 
477.00 	-0.0012820 	2496.9 
477.50 	-0.0011751 	2829.8 
478.00 	-0.0011751 	2996.2 
478.50 	-0.0010683 	3495.6 
479.00 	-0.0010683 	3828.5 
479.50 	-0.0009614 	3828.5 
479.77 	-0.0008546 	4494.3 
480.25 	-0.0006409 	5160.2 
480.63 	-0.0004273 	5826.0 
481.13 	-0.0002136 	6325.4 
481.45 	0.00000 	6991.2 
481.87 	0.00010662 	7657.0 
482.27 	0.00021324 	8322.8 
482.77 	0.00031985 	8988.7 
483.20 	0.00042647 	9654.5 
483.70 	0.00053309 	9987.4 
484.10 	0.00063971 	10653 
484.60 	0.00074633 	11153 
485.10 	0.00074633 	11652 
485.60 	0.00085294 	12151 
486.07 	0.00095956 	12817 
486.57 	0.0010662 	13317 
487.07 	0.0010662 	13483 
487.57 	0.0011728 	13649 
488.07 	0.0010662 	13649 
488.57 	0.0010662 	13816 
489.07 	0.0010662 	13816 
489.57 	0.0010662 	13816 
490.07 	0.0010662 	13816 
490.57 	0.0010662 	13816 
491.07 	0.0011728 	13816 
491.57 	0.0011728 	13816 
492.07 	0.0011728 	13816 
492.57 	0.0011728 	13816 
493.07 	0.0010662 	13816 
493.57 	0.0011728 	13816 
494.07 	0.0010662 	13816 
494.57 	0.0011728 	13816 
495.07 	0.0011728 	13816 
495.57 	0.0011728 	13816 
496.07 	0.0011728 	13816 
496.57 	0.0011728 	13816 
497.07 	0.0011728 	13982 
497.57 	0.0011728 	13816 
498.07 	0.0011728 	13816 
498.57 	0.0011728 	13649 
499.07 	0.0011728 	13649 
499.57 	0.0011728 	13816 
500.07 	0.0010662 	13816 
500.57 	0.0011728 	13816 
501.07 	0.0011728 	13816 
501.57 	0.0011728 	13816 
502.07 	0.0011728 	13816 
502.57 	0.0011728 	13816 
503.07 	0.0010662 	13816 
503.57 	0.0011728 	13816 
504.07 	0.0011728 	13816 
504.57 	0.0011728 	13816 
505.07 	0.0010662 	13816 
505.57 	0.0011728 	13816 
506.07 	0.0011728 	13649 
506.57 	0.0010662 	13816 
507.07 	0.0011728 	13816 
507.57 	0.0010662 	13816 
508.07 	0.0010662 	13816 
508.57 	0.0010662 	13816 
509.07 	0.0010662 	13816 
509.57 	0.0010662 	13982 
510.07 	0.0010662 	13816 
510.57 	0.0011728 	13816 
511.07 	0.0010662 	13816 
511.57 	0.0011728 	13816 
512.07 	0.0010662 	13816 
512.57 	0.0011728 	13816 
513.07 	0.0010662 	13649 
513.57 	0.0010662 	13816 
514.07 	0.0011728 	13982 
514.57 	0.0011728 	13816 
515.07 	0.0011728 	13816 
515.57 	0.0010662 	13649 
516.07 	0.0010662 	13816 
516.57 	0.0011728 	13816 
517.07 	0.0011728 	13816 
517.57 	0.0011728 	13816 
518.07 	0.0010662 	13816 
518.57 	0.0010662 	13816 
519.07 	0.0011728 	13816 
519.57 	0.0010662 	13816 
520.07 	0.0010662 	13649 
520.57 	0.0011728 	13649 
521.07 	0.0010662 	13649 
521.57 	0.0010662 	13816 
522.07 	0.0010662 	13982 
522.57 	0.0010662 	13816 
523.07 	0.0011728 	13816 
523.57 	0.0010662 	13816 
524.07 	0.0011728 	13982 
524.57 	0.0010662 	13816 
525.07 	0.0011728 	13649 
525.57 	0.0011728 	13649 
526.07 	0.0011728 	13816 
526.57 	0.0010662 	13816 
527.07 	0.0011728 	13816 
527.57 	0.0011728 	13816 
528.07 	0.0011728 	13816 
528.57 	0.0010662 	13816 
529.07 	0.0010662 	13649 
529.57 	0.0010662 	13816 
530.07 	0.0011728 	13816 
530.57 	0.0010662 	13816 
531.07 	0.0010662 	13816 
531.57 	0.0010662 	13649 
532.07 	0.0011728 	13816 
532.57 	0.0011728 	13816 
533.07 	0.0010662 	13816 
533.57 	0.0010662 	13816 
534.07 	0.0011728 	13816 
534.57 	0.0011728 	13982 
535.07 	0.0011728 	13982 
535.57 	0.0011728 	13816 
536.07 	0.0011728 	13816 
536.57 	0.0010662 	13816 
537.07 	0.0011728 	13816 
537.57 	0.0011728 	13816 
538.07 	0.0011728 	13816 
538.57 	0.0010662 	13816 
539.07 	0.0011728 	13816 
539.57 	0.0010662 	13816 
540.07 	0.0010662 	13982 
540.57 	0.0010662 	13816 
541.07 	0.0011728 	13816 
541.57 	0.0011728 	13816 
542.07 	0.0011728 	13816 
542.57 	0.0010662 	13816 
543.07 	0.0011728 	13816 
543.57 	0.0010662 	13816 
544.07 	0.0011728 	13816 
544.57 	0.0011728 	13982 
545.07 	0.0010662 	13816 
545.57 	0.0010662 	13816 
546.07 	0.0010662 	13816 
546.57 	0.0010662 	13816 
546.82 	0.0010662 	13982 
547.32 	0.0011728 	13816 
547.82 	0.0010662 	13816 
548.32 	0.0011728 	13816 
548.82 	0.0011728 	13816 
549.32 	0.0011728 	13816 
549.82 	0.0010662 	13649 
550.32 	0.0011728 	13816 
550.82 	0.0010662 	13816 
551.32 	0.0011728 	13816 
551.82 	0.0011728 	13816 
552.32 	0.0010662 	13816 
552.82 	0.0010662 	13649 
553.32 	0.0010662 	13816 
553.82 	0.0011728 	13816 
554.32 	0.0011728 	13982 
554.82 	0.0010662 	13649 
555.32 	0.0011728 	13816 
555.82 	0.0010662 	13816 
556.32 	0.0011728 	13982 
556.82 	0.0010662 	13982 
557.32 	0.0010662 	13816 
557.82 	0.0010662 	13816 
558.32 	0.0010662 	13816 
558.82 	0.0010662 	13982 
559.32 	0.0011728 	13816 
559.82 	0.0011728 	13816 
560.32 	0.0011728 	13816 
560.82 	0.0010662 	13816 
561.32 	0.0010662 	13816 
561.82 	0.0010662 	13816 
562.32 	0.0010662 	13816 
562.82 	0.0010662 	13816 
563.32 	0.0010662 	13816 
563.82 	0.0011728 	13816 
564.32 	0.0010662 	13816 
564.82 	0.0011728 	13649 
565.32 	0.0011728 	13816 
565.82 	0.0011728 	13816 
566.32 	0.0010662 	13816 
566.82 	0.0011728 	13816 
567.32 	0.0010662 	13982 
567.82 	0.0010662 	13816 
568.32 	0.0010662 	13816 
568.82 	0.0010662 	13816 
569.32 	0.0010662 	13816 
569.82 	0.0011728 	13816 
570.32 	0.0011728 	13816 
570.82 	0.0010662 	13816 
571.32 	0.0011728 	13649 
571.82 	0.0010662 	13816 
572.32 	0.0010662 	13982 
572.82 	0.0011728 	13816 
573.32 	0.0011728 	13816 
573.82 	0.0010662 	13816 
574.32 	0.0010662 	13816 
574.82 	0.0011728 	13816 
575.32 	0.0011728 	13982 
575.82 	0.0010662 	13816 
576.32 	0.0010662 	13816 
576.80 	0.0011728 	13816 
577.30 	0.0010662 	13982 
577.80 	0.0011728 	13982 
578.30 	0.0011728 	13816 
578.80 	0.0011728 	13816 
579.30 	0.0011728 	13816 
579.80 	0.0011728 	13982 
580.30 	0.0011728 	13982 
580.80 	0.0011728 	13816 
581.30 	0.0011728 	13649 
581.80 	0.0011728 	13816 
582.30 	0.0011728 	13816 
582.80 	0.0011728 	13816 
583.30 	0.0011728 	13649 
583.80 	0.0011728 	13816 
584.30 	0.0011728 	13816 
584.80 	0.0011728 	13816 
585.30 	0.0011728 	13649 
585.80 	0.0011728 	13649 
586.30 	0.0011728 	13982 
586.80 	0.0011728 	13816 
587.30 	0.0011728 	13982 
587.80 	0.0011728 	13649 
588.30 	0.0011728 	13649 
588.80 	0.0011728 	13816 
589.30 	0.0011728 	13982 
589.80 	0.0011728 	13816 
590.30 	0.0011728 	13649 
590.80 	0.0011728 	13649 
591.30 	0.0011728 	13816 
591.80 	0.0011728 	13816 
592.30 	0.0011728 	13816 
592.80 	0.0011728 	13816 
593.30 	0.0011728 	13649 
593.80 	0.0011728 	13816 
594.30 	0.0011728 	13982 
594.80 	0.0011728 	13982 
595.30 	0.0011728 	13816 
595.80 	0.0011728 	13649 
596.30 	0.0011728 	13649 
596.80 	0.0011728 	13816 
597.30 	0.0011728 	13816 
597.80 	0.0011728 	13816 
598.30 	0.0011728 	13649 
598.80 	0.0011728 	13816 
599.30 	0.0011728 	13816 
599.80 	0.0011728 	13816 
600.30 	0.0011728 	13649 
600.80 	0.0011728 	13649 
601.30 	0.0011728 	13816 
601.80 	0.0011728 	13816 
602.30 	0.0011728 	13816 
602.80 	0.0011728 	13816 
603.30 	0.0011728 	13816 
603.80 	0.0011728 	13816 
604.30 	0.0011728 	13816 
604.80 	0.0011728 	13649 
605.30 	0.0011728 	13816 
605.80 	0.0011728 	13816 
606.30 	0.0011728 	13816 
606.80 	0.0011728 	13816 
607.30 	0.0011728 	13816 
607.80 	0.0011728 	13816 
608.30 	0.0011728 	13816 
608.80 	0.0011728 	13982 
609.30 	0.0011728 	13816 
609.80 	0.0011728 	13816 
610.30 	0.0011728 	13816 
610.80 	0.0011728 	13816 
611.30 	0.0011728 	13816 
611.80 	0.0011728 	13816 
612.30 	0.0011728 	13649 
612.80 	0.0011728 	13649 
613.30 	0.0011728 	13816 
613.80 	0.0011728 	13982 
614.30 	0.0011728 	13816 
614.80 	0.0011728 	13816 
615.30 	0.0011728 	13816 
615.80 	0.0011728 	13982 
616.30 	0.0011728 	13982 
616.80 	0.0011728 	13816 
617.30 	0.0011728 	13649 
617.80 	0.0011728 	13816 
618.30 	0.0011728 	13982 
618.80 	0.0011728 	13816 
619.30 	0.0011728 	13816 
619.80 	0.0011728 	13816 
620.30 	0.0011728 	13816 
620.80 	0.0011728 	13816 
621.30 	0.0011728 	13816 
621.80 	0.0011728 	13816 
622.30 	0.0011728 	13649 
622.80 	0.0011728 	13816 
623.30 	0.0011728 	13982 
623.80 	0.0011728 	13816 
624.30 	0.0011728 	13649 
624.80 	0.0011728 	13816 
625.30 	0.0011728 	13816 
625.80 	0.0011728 	13982 
626.30 	0.0011728 	13816 
626.80 	0.0011728 	13649 
627.30 	0.0011728 	13816 
627.80 	0.0011728 	13982 
628.30 	0.0011728 	13816 
628.80 	0.0011728 	13816 
629.30 	0.0011728 	13816 
629.80 	0.0011728 	13816 
630.30 	0.0011728 	13982 
630.80 	0.0011728 	13816 
631.30 	0.0011728 	13816 
631.80 	0.0011728 	13816 
632.30 	0.0011728 	13816 
632.80 	0.0011728 	13982 
633.30 	0.0011728 	13982 
633.80 	0.0011728 	13649 
634.30 	0.0011728 	13816 
634.80 	0.0011728 	13816 
635.30 	0.0011728 	13816 
635.80 	0.0011728 	13816 
636.30 	0.0011728 	13816 
636.80 	0.0011728 	13816 
637.30 	0.0011728 	13816 
637.80 	0.0011728 	13982 
638.30 	0.0011728 	13982 
638.80 	0.0011728 	13816 
639.30 	0.0011728 	13982 
639.80 	0.0011728 	14315 
640.30 	0.0011728 	14648 
640.80 	0.0011728 	14815 
641.27 	0.0011728 	15480 
641.65 	0.0011728 	16146 
642.03 	0.0011728 	16812 
642.53 	0.0011728 	17312 
643.03 	0.0011728 	17811 
643.53 	0.0011728 	18310 
644.03 	0.0011728 	18810 
644.53 	0.0011728 	19309 
645.03 	0.0011728 	19975 
645.53 	0.0011728 	20474 
646.03 	0.0011728 	20974 
646.53 	0.0011728 	21306 
647.03 	0.0011728 	21806 
647.53 	0.0011728 	22305 
648.02 	0.0011728 	22971 
648.52 	0.0011728 	23470 
649.02 	0.0011728 	23970 
649.52 	0.0011728 	24469 
650.02 	0.0011728 	24969 
650.52 	0.0011728 	25468 
651.02 	0.0011728 	25967 
651.52 	0.0011728 	26467 
652.02 	0.0011728 	26966 
652.52 	0.0011728 	27465 
653.02 	0.0011728 	27965 
653.52 	0.0011728 	28464 
654.02 	0.0011728 	28797 
654.40 	0.0011728 	29463 
654.90 	0.0011728 	29796 
655.40 	0.0011728 	30295 
655.90 	0.0011728 	30795 
656.40 	0.0011728 	31294 
656.90 	0.0011728 	31460 
657.33 	0.0011728 	32126 
657.83 	0.0011728 	32792 
658.32 	0.0011728 	33458 
658.78 	0.0011728 	34124 
659.28 	0.0011728 	34623 
659.78 	0.0011728 	35122 
660.28 	0.0011728 	35622 
660.75 	0.0011728 	36288 
661.25 	0.0011728 	36620 
661.72 	0.0011728 	37286 
662.22 	0.0011728 	37786 
662.72 	0.0011728 	38285 
663.22 	0.0011728 	38784 
663.72 	0.0011728 	39284 
664.22 	0.0011728 	39783 
664.72 	0.0011728 	40283 
665.22 	0.0011728 	40782 
665.72 	0.0011728 	41281 
666.20 	0.0011728 	41947 
666.70 	0.0011728 	42280 
667.20 	0.0011728 	42779 
667.67 	0.0011728 	43445 
668.17 	0.0011728 	43778 
668.67 	0.0011728 	44278 
669.17 	0.0011728 	44777 
669.62 	0.0011728 	45443 
670.12 	0.0011728 	45776 
670.57 	0.0011728 	46441 
671.07 	0.0011728 	46774 
671.55 	0.0011728 	47440 
672.05 	0.0011728 	47773 
672.47 	0.0011728 	48439 
672.97 	0.0011728 	48772 
673.47 	0.0011728 	49271 
673.97 	0.0011728 	49771 
674.47 	0.0011728 	50270 
674.90 	0.0011728 	50936 
675.40 	0.0011728 	51269 
675.90 	0.0011728 	51768 
676.40 	0.0011728 	52267 
676.90 	0.0011728 	52767 
677.40 	0.0011728 	53266 
677.85 	0.0011728 	53932 
678.35 	0.0011728 	54265 
678.82 	0.0011728 	54931 
679.32 	0.0011728 	55264 
679.75 	0.0011728 	55929 
680.25 	0.0011728 	56262 
680.75 	0.0011728 	56762 
681.17 	0.0011728 	57428 
681.67 	0.0011728 	57761 
682.17 	0.0011728 	58260 
682.67 	0.0011728 	58759 
683.17 	0.0011728 	59259 
683.67 	0.0011728 	59924 
684.17 	0.0011728 	60424 
684.67 	0.0011728 	60923 
685.17 	0.0011728 	61423 
685.65 	0.0011728 	62088 
686.15 	0.0011728 	62588 
686.65 	0.0011728 	63087 
687.15 	0.0011728 	63586 
687.65 	0.0011728 	64086 
688.15 	0.0011728 	64585 
688.65 	0.0011728 	65085 
689.15 	0.0011728 	65584 
689.65 	0.0011728 	66083 
690.15 	0.0011728 	66749 
690.65 	0.0011728 	67249 
691.15 	0.0011728 	67748 
691.65 	0.0011728 	68247 
692.15 	0.0011728 	68747 
692.65 	0.0011728 	69246 
693.15 	0.0011728 	69745 
693.65 	0.0011728 	70245 
694.15 	0.0011728 	70744 
694.65 	0.0011728 	71244 
695.10 	0.0011728 	71909 
695.60 	0.0011728 	72242 
696.10 	0.0011728 	72742 
696.53 	0.0011728 	73407 
697.03 	0.0011728 	73907 
697.53 	0.0011728 	74240 
698.00 	0.0011728 	74906 
698.50 	0.0011728 	75405 
699.00 	0.0011728 	75904 
699.50 	0.0011728 	76404 
700.00 	0.0011728 	76903 
700.50 	0.0011728 	77402 
701.00 	0.0011728 	77902 
701.48 	0.0011728 	78568 
701.98 	0.0011728 	78901 
702.45 	0.0011728 	79566 
702.95 	0.0011728 	80066 
703.45 	0.0011728 	80565 
703.95 	0.0011728 	81064 
704.45 	0.0011728 	81564 
704.95 	0.0011728 	82063 
705.42 	0.0011728 	82729 
705.92 	0.0011728 	83228 
706.42 	0.0011728 	83561 
706.80 	0.0011728 	84227 
707.30 	0.0011728 	84560 
707.80 	0.0011728 	85059 
708.30 	0.0011728 	85559 
708.80 	0.0011728 	86058 
709.28 	0.0011728 	86724 
709.78 	0.0011728 	87057 
710.27 	0.0011728 	87723 
710.77 	0.0011728 	88222 
711.27 	0.0011728 	88721 
711.77 	0.0011728 	89221 
712.27 	0.0011728 	89720 
712.77 	0.0011728 	90220 
713.27 	0.0011728 	90719 
713.77 	0.0011728 	91218 
714.27 	0.0011728 	91718 
714.73 	0.0011728 	92384 
715.23 	0.0011728 	92883 
715.73 	0.0011728 	93382 
716.23 	0.0011728 	93715 
716.67 	0.0011728 	94381 
717.17 	0.0011728 	94880 
717.67 	0.0011728 	95380 
718.17 	0.0011728 	95879 
718.67 	0.0011728 	96378 
719.17 	0.0011728 	96878 
719.67 	0.0011728 	97377 
720.10 	0.0011728 	98043 
720.60 	0.0011728 	98376 
721.08 	0.0011728 	99042 
721.58 	0.0011728 	99375 
722.08 	0.0011728 	99874 
722.58 	0.0011728 	100540 
723.08 	0.0011728 	101040 
723.58 	0.0011728 	101540 
724.08 	0.0011728 	102040 
724.58 	0.0011728 	102540 
725.08 	0.0011728 	103040 
725.58 	0.0011728 	103540 
726.08 	0.0011728 	104200 
726.58 	0.0011728 	104700 
727.08 	0.0011728 	105030 
727.50 	0.0011728 	105700 
728.00 	0.0011728 	106030 
728.45 	0.0011728 	106700 
728.95 	0.0011728 	107030 
729.43 	0.0011728 	107700 
729.93 	0.0011728 	108200 
730.43 	0.0011728 	108700 
730.93 	0.0011728 	109200 
731.43 	0.0011728 	109700 
731.93 	0.0011728 	110190 
732.43 	0.0011728 	110860 
732.93 	0.0011728 	111190 
733.38 	0.0011728 	111860 
733.88 	0.0011728 	112190 
734.38 	0.0011728 	112860 
734.88 	0.0011728 	113190 
735.37 	0.0011728 	113860 
735.87 	0.0011728 	114360 
736.37 	0.0011728 	114690 
736.75 	0.0011728 	115350 
737.25 	0.0011728 	115690 
737.75 	0.0011728 	116190 
738.18 	0.0011728 	116850 
738.68 	0.0011728 	117190 
739.18 	0.0011728 	117680 
739.68 	0.0011728 	118350 
740.18 	0.0011728 	118850 
740.68 	0.0011728 	119350 
741.18 	0.0011728 	119850 
741.68 	0.0011728 	120350 
742.18 	0.0011728 	120850 
742.68 	0.0011728 	121350 
743.17 	0.0011728 	122010 
743.67 	0.0011728 	122350 
744.12 	0.0011728 	123010 
744.62 	0.0011728 	123340 
745.12 	0.0011728 	123840 
745.58 	0.0011728 	124510 
746.08 	0.0011728 	124840 
746.55 	0.0011728 	125510 
747.05 	0.0011728 	126010 
747.55 	0.0011728 	126510 
748.05 	0.0011728 	127010 
748.55 	0.0011728 	127510 
749.05 	0.0011728 	128010 
749.55 	0.0011728 	128670 
750.05 	0.0011728 	129000 
750.55 	0.0011728 	129670 
751.05 	0.0011728 	130170 
751.55 	0.0011728 	130670 
752.05 	0.0011728 	131170 
752.55 	0.0011728 	131670 
753.05 	0.0011728 	132170 
753.55 	0.0011728 	132670 
754.05 	0.0011728 	133170 
754.55 	0.0011728 	133830 
755.05 	0.0011728 	134330 
755.55 	0.0011728 	134830 
756.05 	0.0011728 	135330 
756.55 	0.0011728 	135830 
757.05 	0.0011728 	136330 
757.55 	0.0011728 	136830 
758.05 	0.0011728 	137330 
758.55 	0.0011728 	137830 
759.05 	0.0011728 	138490 
759.55 	0.0011728 	138990 
760.05 	0.0011728 	139490 
760.55 	0.0011728 	139990 
761.05 	0.0011728 	140490 
761.55 	0.0011728 	140990 
762.05 	0.0011728 	141490 
762.55 	0.0011728 	141990 
763.05 	0.0011728 	142490 
763.55 	0.0011728 	143150 
764.05 	0.0011728 	143650 
764.55 	0.0011728 	144150 
765.05 	0.0011728 	144650 
765.55 	0.0011728 	145150 
766.05 	0.0011728 	145820 
766.55 	0.0011728 	146150 
767.05 	0.0011728 	146810 
767.55 	0.0011728 	147310 
768.05 	0.0011728 	147810 
768.55 	0.0011728 	148310 
769.05 	0.0011728 	148810 
769.55 	0.0011728 	149480 
770.05 	0.0011728 	149810 
770.55 	0.0011728 	150480 
771.05 	0.0011728 	150980 
771.55 	0.0011728 	151480 
772.05 	0.0011728 	151980 
772.55 	0.0011728 	152470 
773.05 	0.0011728 	152970 
773.55 	0.0011728 	153470 
774.05 	0.0011728 	153970 
774.55 	0.0011728 	154470 
775.05 	0.0011728 	154970 
775.55 	0.0011728 	155640 
776.05 	0.0011728 	156140 
776.55 	0.0011728 	156470 
777.05 	0.0011728 	157140 
777.55 	0.0011728 	157630 
778.05 	0.0011728 	158130 
778.55 	0.0011728 	158630 
779.05 	0.0011728 	159300 
779.55 	0.0011728 	159800 
780.05 	0.0011728 	160300 
780.55 	0.0011728 	160800 
781.05 	0.0011728 	161300 
781.55 	0.0011728 	161960 
782.05 	0.0011728 	162300 
782.55 	0.0011728 	162790 
783.05 	0.0011728 	163290 
783.55 	0.0011728 	163790 
784.05 	0.0011728 	164460 
784.55 	0.0011728 	164960 
785.05 	0.0011728 	165460 
785.55 	0.0011728 	165960 
786.05 	0.0011728 	166460 
786.55 	0.0011728 	166960 
787.05 	0.0011728 	167460 
787.55 	0.0011728 	167950 
788.05 	0.0011728 	168450 
788.55 	0.0011728 	169120 
789.05 	0.0011728 	169620 
789.55 	0.0011728 	170120 
790.05 	0.0011728 	170620 
790.55 	0.0011728 	171120 
791.05 	0.0011728 	171620 
791.55 	0.0011728 	172120 
792.05 	0.0011728 	172780 
792.55 	0.0011728 	173280 
793.05 	0.0011728 	173780 
793.55 	0.0011728 	174280 
794.05 	0.0011728 	174780 
794.55 	0.0011728 	175280 
795.05 	0.0011728 	175940 
795.55 	0.0011728 	176440 
796.05 	0.0011728 	176940 
796.55 	0.0011728 	177280 
797.05 	0.0011728 	177940 
797.55 	0.0011728 	178440 
798.05 	0.0011728 	178940 
798.55 	0.0011728 	179440 
799.05 	0.0011728 	180110 
799.55 	0.0011728 	180440 
800.05 	0.0011728 	181100 
800.55 	0.0011728 	181600 
801.05 	0.0011728 	182100 
801.55 	0.0011728 	182600 
802.05 	0.0011728 	183100 
802.55 	0.0011728 	183770 
803.05 	0.0011728 	184100 
803.55 	0.0011728 	184770 
804.05 	0.0011728 	185270 
804.55 	0.0011728 	185770 
805.05 	0.0011728 	186270 
805.55 	0.0011728 	186760 
806.05 	0.0011728 	187260 
806.55 	0.0011728 	187930 
807.05 	0.0011728 	188430 
807.55 	0.0011728 	188930 
808.05 	0.0011728 	189430 
808.55 	0.0011728 	189760 
809.05 	0.0011728 	190430 
809.55 	0.0011728 	190930 
810.05 	0.0011728 	191430 
810.55 	0.0011728 	191920 
811.05 	0.0011728 	192590 
811.55 	0.0011728 	192920 
812.05 	0.0011728 	193590 
812.55 	0.0011728 	194090 
813.05 	0.0011728 	194590 
813.55 	0.0011728 	195090 
814.05 	0.0011728 	195590 
814.55 	0.0011728 	196090 
815.05 	0.0011728 	196750 
815.55 	0.0011728 	197080 
816.05 	0.0011728 	197750 
816.55 	0.0011728 	198250 
817.05 	0.0011728 	198750 
817.55 	0.0011728 	199250 
818.05 	0.0011728 	199750 
818.55 	0.0011728 	200250 
819.05 	0.0011728 	200750 
819.55 	0.0011728 	201410 
820.05 	0.0011728 	201750 
820.55 	0.0011728 	202410 
821.05 	0.0011728 	202910 
821.55 	0.0011728 	203410 
822.05 	0.0011728 	203910 
822.55 	0.0011728 	204580 
823.05 	0.0011728 	204910 
823.55 	0.0011728 	205570 
824.05 	0.0011728 	206070 
824.55 	0.0011728 	206570 
825.05 	0.0011728 	207070 
825.55 	0.0011728 	207570 
826.05 	0.0011728 	208070 
826.55 	0.0011728 	208570 
827.05 	0.0011728 	209070 
827.55 	0.0011728 	209570 
828.05 	0.0011728 	210070 
828.55 	0.0011728 	210570 
829.05 	0.0011728 	211230 
829.55 	0.0011728 	211570 
830.05 	0.0011728 	212230 
830.55 	0.0011728 	212900 
831.05 	0.0011728 	213230 
831.55 	0.0011728 	213900 
832.05 	0.0011728 	214400 
832.55 	0.0011728 	214730 
833.05 	0.0011728 	215400 
833.55 	0.0011728 	215890 
834.05 	0.0011728 	216230 
834.55 	0.0011728 	216890 
835.05 	0.0011728 	217390 
835.55 	0.0011728 	217890 
836.05 	0.0011728 	218390 
836.55 	0.0011728 	219060 
837.05 	0.0011728 	219560 
837.55 	0.0011728 	220060 
838.05 	0.0011728 	220560 
838.55 	0.0011728 	221050 
839.05 	0.0011728 	221550 
839.55 	0.0011728 	222050 
840.05 	0.0011728 	222720 
840.55 	0.0011728 	223050 
841.05 	0.0011728 	223550 
841.55 	0.0011728 	224220 
842.05 	0.0011728 	224720 
842.55 	0.0011728 	225220 
843.05 	0.0011728 	225720 
843.55 	0.0011728 	226210 
844.05 	0.0011728 	226710 
844.55 	0.0011728 	227380 
845.05 	0.0011728 	227880 
845.55 	0.0011728 	228210 
846.05 	0.0011728 	228880 
846.55 	0.0011728 	229380 
846.87 	0.0011728 	227210 
846.88 	0.0011728 	223880 
846.90 	0.0011728 	222220 
847.07 	0.0011728 	224050 
847.17 	0.0011728 	225720 
847.27 	0.0011728 	227380 
847.43 	0.0011728 	229040 
847.93 	0.0011728 	230380 
848.43 	0.0011728 	230880 
848.60 	0.0011728 	229040 
848.62 	0.0011728 	226710 
848.90 	0.0011728 	228380 
849.07 	0.0011728 	230040 
849.57 	0.0011728 	230710 
849.77 	0.0011728 	227050 
849.78 	0.0011728 	224880 
850.08 	0.0011728 	226710 
850.20 	0.0011728 	228380 
850.35 	0.0011728 	230040 
850.57 	0.0011728 	231710 
851.07 	0.0011728 	233210 
851.22 	0.0011728 	228710 
851.23 	0.0011728 	221390 
851.25 	0.0011728 	218720 
851.28 	0.0011728 	220560 
851.37 	0.0011728 	222550 
851.43 	0.0011728 	224220 
851.52 	0.0011728 	222220 
851.57 	0.0011728 	224380 
851.67 	0.0011728 	226050 
851.80 	0.0011728 	227710 
851.87 	0.0011728 	225050 
851.88 	0.0011728 	223380 
851.92 	0.0011728 	220560 
851.97 	0.0011728 	218560 
851.98 	0.0011728 	214230 
852.00 	0.0011728 	202240 
852.02 	0.0011728 	188260 
852.03 	0.0011728 	162790 
